Date(JD-2457000)  Counts  Error
1325.334402  4043.2507  1341.5499
1325.355236  91.6713  1366.5997
1325.37607  -3256.2446  1389.0696
1325.396903  -4930.3724  1563.9223
1325.417737  -7048.0388  1421.4288
1325.43857  -12152.6499  1413.3499
1325.459404  -17971.1351  1609.125
1325.480238  -398.7697  1860.7884
1325.501071  3153.3967  1899.9469
1325.521905  5459.288  1997.8884
1325.542738  7176.3311  2132.3466
1325.563572  12372.5972  2216.3494
1325.584406  16459.1274  2269.121
1325.605239  16550.2097  2308.0071
1325.626073  14936.7722  2327.4945
1325.646906  12641.8178  2317.8482
1325.66774  15234.0848  2298.4649
1325.688574  9412.1208  2291.5364
1325.709407  9885.69  2299.0744
1325.730241  10243.7062  2256.3992
1325.751074  9407.6871  2265.5618
1325.771908  8284.0315  2274.7394
1325.792742  7876.8157  2282.7721
1325.813575  4939.9549  2280.0521
1325.834409  7479.9549  2272.7743
1325.855243  7610.8453  2248.8027
1325.876076  5039.4258  2211.5063
1325.89691  8497.7  2182.8786
1325.917743  9541.3663  2158.5929
1325.938577  7907.8327  2136.0921
1325.959411  3099.7291  2119.4286
1325.980244  3416.2461  2108.6983
1326.001078  6665.1045  2109.9495
1326.021911  6527.9293  2117.6153
1326.042745  6844.4668  2105.4648
1326.063579  6241.9002  2101.1332
1326.084412  2109.8162  2096.7927
1326.105246  4288.6467  2127.918
1326.126079  10430.1177  2126.4712
1326.146913  5515.8944  2105.7471
1326.167747  7104.9048  2099.5692
1326.18858  7991.1551  2086.2653
1326.209414  6926.3681  2073.1818
1326.230248  6337.263  2058.3257
1326.251081  5868.4771  2048.667
1326.271915  10299.7415  2035.2122
1326.292748  5230.9229  2022.6566
1326.313582  4763.2995  2016.5129
1326.334416  6078.4208  2015.043
1326.355249  3579.7069  2009.5622
1326.376083  6884.0633  2011.9906
1326.396916  4253.7856  2005.8357
1326.41775  8377.3682  2007.6544
1326.438584  6662.5709  2006.867
1326.459417  6724.7955  2028.1138
1326.480251  7323.9325  2025.6275
1326.501085  7137.8373  2026.142
1326.521918  10285.761  2029.2569
1326.542752  4902.3583  2037.4347
1326.563585  6641.5171  2034.4583
1326.584419  7177.1518  2027.3711
1326.605253  6773.2919  2023.7619
1326.626086  7653.1953  2015.8598
1326.64692  1294.8958  2001.7642
1326.667753  5805.9073  1987.9317
1326.688587  7974.2609  1970.5514
1326.709421  5846.4217  1951.6333
1326.730254  6767.0356  1936.553
1326.751088  5830.1877  1922.9099
1326.771922  6693.2673  1911.7982
1326.792755  3352.419  1902.994
1326.813589  3997.6209  1898.3657
1326.834422  3484.5939  1888.3338
1326.855256  3733.4857  1875.051
1326.87609  3969.0973  1863.6535
1326.896923  2970.7587  1838.6843
1326.917757  5053.8082  1812.3172
1326.938591  4680.5643  1788.2533
1326.959424  4838.2076  1765.9056
1326.980258  3268.087  1747.1294
1327.001091  3915.5839  1733.538
1327.021925  4529.0599  1727.2639
1327.042759  2151.7014  1730.2057
1327.063592  4433.5411  1732.3422
1327.084426  5769.8011  1726.1736
1327.105259  3056.9637  1725.7613
1327.126093  2077.3108  1722.8676
1327.146927  2853.2619  1721.9746
1327.16776  3838.5017  1709.4705
1327.188594  4809.7471  1708.4588
1327.209428  2610.1785  1696.2178
1327.230261  2762.1928  1694.755
1327.251095  320.8632  1676.5262
1327.271928  764.4451  1661.9295
1327.292762  4186.7388  1648.9656
1327.313596  3491.2387  1639.9383
1327.334429  1467.083  1630.0151
1327.355263  -566.6077  1621.7899
1327.376096  201.6542  1614.1572
1327.39693  1898.4574  1613.1758
1327.417764  -540.6329  1606.725
1327.438597  1432.1386  1606.0944
1327.459431  -1505.0606  1605.0933
1327.480265  2584.7709  1600.7815
1327.501098  1382.3052  1604.5603
1327.521932  1288.3044  1606.2604
1327.542765  1735.4484  1613.5498
1327.563599  -751.7704  1616.6475
1327.584433  1003.2383  1618.5091
1327.605266  2083.1052  1613.5021
1327.6261  -1734.7538  1591.1989
1327.646933  -262.3564  1585.3677
1327.667767  2901.5508  1585.4005
1327.688601  826.9034  1574.7796
1327.709434  -426.9226  1568.6304
1327.730268  1381.221  1566.7313
1327.751102  -552.958  1560.5694
1327.771935  -2102.1212  1555.366
1327.792769  -2340.2526  1550.6323
1327.813602  -13.7177  1545.0059
1327.834436  -6922.8203  1702.7994
1327.85527  156.1746  1527.8397
1327.876103  514.5528  1523.7695
1327.896937  -502.3555  1514.3172
1327.91777  -1320.9569  1473.8019
1327.938604  -3117.1615  1463.4322
1327.959438  -4427.3104  1454.1353
1327.980271  -1507.0859  1447.7632
1328.001105  -1014.0646  1488.0488
1328.021938  -2698.1171  1483.1951
1328.042772  -42.9503  1485.5444
1328.063606  -3543.7898  1483.1792
1328.084439  -2716.6772  1484.7306
1328.105273  -911.0534  1485.7161
1328.126107  -1208.2089  1484.6725
1328.14694  -1501.7816  1482.1314
1328.167774  -261.0991  1480.5046
1328.188607  -712.6642  1475.2862
1328.209441  -2277.8992  1471.9006
1328.230275  -62.5495  1470.0227
1328.251108  -950.795  1466.2155
1328.271942  -2188.9395  1459.8974
1328.292775  2945.4775  1459.4278
1328.313609  -1674.7766  1454.3216
1328.334443  1164.3994  1453.273
1328.355276  656.5624  1451.9244
1328.37611  4067.8437  1451.8921
1328.396943  -152.152  1448.374
1328.417777  -1481.0415  1403.1097
1328.438611  1140.106  1449.851
1328.459444  -1244.1603  1448.4184
1328.480278  348.3399  1409.0334
1328.501112  -3263.1883  1453.8016
1328.521945  -17.8929  1460.1077
1328.542779  -3151.5526  1463.8433
1328.563612  -1188.3537  1470.0117
1328.584446  -1002.5966  1472.5013
1328.60528  -1222.6513  1472.6454
1328.626113  1348.2767  1472.1866
1328.646947  -1689.3813  1470.7969
1328.66778  -508.5812  1470.212
1328.688614  -1024.7442  1468.4511
1328.709448  -202.5555  1468.7929
1328.730281  -3869.627  1467.2195
1328.751115  -231.7276  1469.1949
1328.771949  -901.5569  1468.2425
1328.792782  -4937.347  1467.1616
1328.813616  -2964.8703  1466.613
1328.834449  -3526.0228  1463.583
1328.855283  -1836.5132  1461.4678
1328.876117  -2738.443  1459.0623
1328.89695  -2003.4616  1454.5378
1328.917784  -412.5736  1452.1914
1328.938618  -1018.4897  1446.3352
1328.959451  -2236.9554  1440.4435
1328.980285  -1323.6809  1437.0635
1329.001119  1878.3962  1391.6412
1329.021952  -214.2937  1417.9208
1329.042786  -1934.9858  1433.1861
1329.06362  961.5474  1435.3669
1329.084453  2070.0274  1422.2794
1329.105287  -1829.1914  1419.3861
1329.12612  -2235.573  1394.042
1329.146954  -4617.1967  1435.9854
1329.167788  -1122.9216  1438.608
1329.188621  -1532.2424  1424.2053
1329.209455  -225.9331  1421.5829
1329.230289  436.5168  1440.612
1329.251122  -1435.7791  1390.3523
1329.271956  -1335.2631  1432.0374
1329.29279  -313.3984  1428.6367
1329.313623  1316.9492  1426.7603
1329.334457  274.4704  1408.4922
1329.355291  1070.7455  1405.2235
1329.376124  1505.9624  1406.9319
1329.396958  -125.7063  1373.7691
1329.417791  4034.6231  1404.9687
1329.438625  1363.3523  1421.3793
1329.459459  2993.9491  1380.7541
1329.480292  351.7671  1378.7264
1329.501126  452.1488  1426.0535
1329.52196  675.7665  1414.662
1329.542793  1264.563  1432.3919
1329.563627  1619.1005  1433.253
1329.584461  -5216.9585  1433.048
1329.605294  -2211.5164  1437.1366
1329.626128  -1948.34  1437.0649
1329.646961  -750.4357  1420.9102
1329.667795  831.7789  1439.3352
1329.688629  -1606.6841  1391.1421
1329.709462  -2302.2784  1420.1619
1329.730296  1835.7515  1425.0138
1329.75113  -1570.5799  1437.2496
1329.771963  -142.9967  1436.6596
1329.792797  -1091.578  1437.8365
1329.813631  -215.817  1436.2809
1329.834464  375.8276  1421.4825
1329.855298  -833.2332  1416.9058
1329.876131  -1484.7421  1429.3831
1329.896965  2207.5706  1429.2254
1329.917799  -1110.3541  1424.7079
1329.938632  1892.8544  1405.5164
1329.959466  2265.8976  1402.0545
1329.9803  3554.2562  1403.4441
1330.001133  -924.0046  1370.9184
1330.021967  2849.3406  1398.4702
1330.042801  518.6033  1396.2794
1330.063634  147.9816  1400.9088
1330.084468  -2173.405  1395.6852
1330.105301  -512.1344  1398.819
1330.126135  2454.6655  1400.7829
1330.146969  -451.4629  1400.5898
1330.167802  813.1446  1404.5208
1330.188636  921.2531  1375.1254
1330.20947  -2716.0281  1401.9936
1330.230303  -1806.4839  1402.2338
1330.251137  859.8494  1400.6736
1330.27197  -891.2945  1395.4024
1330.292804  -1932.7634  1365.099
1330.313638  1342.3257  1390.9345
1330.334471  10190.4305  1538.864
1330.355305  854.7786  1359.171
1330.376139  -751.7828  1382.2501
1330.396972  -417.2832  1382.3767
1330.417806  -25.1435  1382.1818
1330.43864  1267.5345  1383.3425
1330.459473  1765.9693  1383.6998
1330.480307  231.6973  1357.9362
1330.50114  1846.7035  1360.3432
1330.521974  -415.3908  1362.2077
1330.542808  -1398.7512  1392.2809
1330.563641  635.1575  1396.4537
1330.584475  -7.0432  1398.0805
1330.605309  -2287.4952  1399.9075
1330.626142  -2651.55  1402.9594
1330.646976  -538.6548  1403.4553
1330.667809  -3312.5974  1403.7842
1330.688643  -1422.4933  1403.021
1330.709477  -1654.8354  1404.3121
1330.73031  -4165.9301  1400.8049
1330.751144  -717.8124  1402.0724
1330.771978  1199.945  1401.7548
1330.792811  576.0089  1403.1161
1330.813645  -1461.0056  1400.284
1330.834479  -245.0345  1401.0505
1330.855312  -2433.018  1399.2568
1330.876146  -905.1283  1397.1673
1330.896979  -893.7129  1395.5195
1330.917813  -139.4429  1392.8506
1330.938647  -2036.7082  1390.5251
1330.95948  -416.6997  1389.3041
1330.980314  -632.4154  1386.7826
1331.001148  -1887.7406  1386.232
1331.021981  -793.4938  1385.0155
1331.042815  -535.172  1385.582
1331.063648  -648.3895  1385.8772
1331.084482  -63.2838  1386.2593
1331.105316  25.6366  1360.0759
1331.126149  -18.054  1387.8815
1331.146983  -3728.6518  1359.6161
1331.167817  -838.6588  1388.5528
1331.18865  2019.5159  1391.6547
1331.209484  1064.9841  1390.1648
1331.230317  -2208.122  1389.0996
1331.251151  -1290.0783  1387.071
1331.271985  -1188.352  1384.7953
1331.292818  -814.0361  1381.1749
1331.313652  613.1361  1379.3473
1331.334486  -310.0454  1376.6634
1331.355319  1214.5977  1374.3087
1331.376153  795.041  1371.5253
1331.396986  3554.6826  1371.3932
1331.41782  880.7161  1368.5534
1331.438654  -960.8073  1340.4393
1331.459487  -11.3594  1366.5918
1331.480321  631.4181  1341.9268
1331.501155  5038.0612  1373.8777
1331.521988  2106.4818  1374.4206
1331.542822  1241.3839  1376.7505
1331.563655  4220.4824  1381.2594
1331.584489  -1563.3583  1380.7666
1331.605323  46.9593  1385.2444
1331.626156  602.33  1386.3273
1331.64699  2161.6639  1389.8602
1331.667824  -1033.3341  1389.9755
1331.688657  1509.7516  1390.2809
1331.709491  -1724.6998  1388.7155
1331.730324  1178.2957  1388.5703
1331.751158  -532.3248  1387.6687
1331.771992  392.1711  1386.4304
1331.792825  1625.5743  1387.2856
1331.813659  -2670.8062  1385.2105
1331.834492  386.9388  1358.8259
1331.855326  1266.0998  1384.56
1331.87616  816.456  1384.2427
1331.896993  169.0359  1383.4834
1331.917827  -826.1435  1382.9261
1331.938661  -107.9982  1380.1496
1331.959494  921.2351  1379.5349
1331.980328  -197.4883  1378.8609
1332.001161  693.7632  1376.8295
1332.021995  1782.5288  1374.4916
1332.042829  1750.9049  1375.2866
1332.063662  2449.8336  1374.4557
1332.084496  1084.8562  1374.0215
1332.10533  -1608.1636  1346.7879
1332.126163  -161.2752  1374.1729
1332.146997  479.9242  1376.407
1332.16783  -1154.4183  1375.9698
1332.188664  -84.9302  1377.3273
1332.209498  -798.1509  1378.3489
1332.230331  -1739.2985  1374.3947
1332.251165  -3106.156  1374.1265
1332.271998  -4899.1973  1345.3558
1332.292832  -312.1511  1372.1735
1332.313666  -2056.2329  1369.9773
1332.334499  -1751.1441  1364.6574
1332.355333  1080.6328  1361.6396
1332.376167  2573.1782  1361.6592
1332.397  -198.5103  1362.2395
1332.417834  2815.6009  1359.589
1332.438667  2106.7474  1357.3783
1332.459501  -1809.5719  1355.1508
1332.480335  2832.4175  1358.2422
1332.501168  -1600.903  1358.3851
1332.522002  2615.5062  1359.5246
1332.542835  83.8162  1361.2903
1332.563669  -1461.626  1363.1778
1332.584503  -783.4834  1365.4844
1332.605336  -933.3626  1366.2674
1332.62617  -838.8791  1366.7816
1332.647004  1643.5088  1367.7671
1332.667837  -1072.8397  1366.1159
1332.688671  1653.3357  1366.7842
1332.709504  1166.9759  1365.4185
1332.730338  -11.1017  1363.0516
1332.751172  1270.5255  1361.8776
1332.772005  2621.7519  1361.6661
1332.792839  253.0915  1358.9941
1332.813672  59.5759  1357.2229
1332.834506  -981.1934  1502.225
1332.85534  3343.2464  1355.7532
1332.876173  1898.3601  1354.4267
1332.897007  -637.069  1354.3858
1332.91784  1350.5717  1351.569
1332.938674  984.9018  1351.8099
1332.959508  973.933  1349.6413
1332.980341  509.3903  1348.9543
1333.001175  1085.2692  1348.7404
1333.022009  1877.5  1347.7058
1333.042842  2072.4771  1347.0472
1333.063676  989.0507  1346.69
1333.084509  741.2882  1346.4166
1333.105343  1937.4214  1346.4104
1333.126177  -1435.5486  1344.8045
1333.14701  5405.6087  1348.2683
1333.167844  1625.6779  1348.1685
1333.188677  698.7722  1349.9181
1333.209511  2873.3323  1348.4036
1333.230345  3217.0379  1349.2224
1333.251178  -72.788  1344.6396
1333.272012  2460.874  1345.7882
1333.292845  2150.9494  1343.5081
1333.313679  2492.4557  1341.416
1333.334512  892.2906  1338.959
1333.355346  2877.4789  1336.2425
1333.376179  2544.9102  1334.5483
1333.397013  1105.2995  1330.8675
1333.417846  2088.6987  1330.615
1333.43868  -1029.8335  1327.449
1333.459513  3396.5905  1329.9672
1333.480347  279.2337  1326.4412
1333.50118  -2566.7783  1299.3555
1333.522014  1765.6683  1330.5559
1333.542847  1665.0979  1333.5156
1333.563681  884.7563  1333.7651
1333.584514  2665.637  1335.0039
1333.605348  730.4054  1336.7206
1333.626181  1329.6753  1336.9288
1333.647015  1196.327  1337.5914
1333.667848  536.7437  1336.5467
1333.688682  1603.2105  1337.6873
1333.709515  1789.4749  1337.2453
1333.730349  1019.6254  1335.8151
1333.751183  -487.7569  1334.2747
1333.772016  1117.7478  1334.5906
1333.79285  2265.2047  1333.9291
1333.813683  1538.2814  1332.8712
1333.834517  1557.8042  1330.8068
1333.85535  552.219  1300.3551
1333.876184  2672.298  1329.8479
1333.897017  3629.9194  1329.5209
1333.917851  1989.3045  1327.3286
1333.938684  3102.2454  1328.1902
1333.959518  643.4746  1326.3494
1333.980351  2837.597  1325.2169
1334.001185  997.7119  1324.3991
1334.022018  1001.9788  1324.9286
1334.042852  1706.0186  1323.9926
1334.063685  4266.6844  1326.5475
1334.084519  264.3256  1324.701
1334.105352  2588.1068  1325.2551
1334.126186  1258.1471  1325.7402
1334.147019  1462.3233  1326.7427
1334.167853  416.2515  1325.7715
1334.188686  1987.3091  1328.0376
1334.20952  1713.5304  1329.3076
1334.230353  317.3338  1327.5836
1334.251187  2341.1865  1329.2959
1334.27202  -715.2205  1326.5382
1334.292854  2215.4232  1328.5244
1334.313687  -328.2821  1324.2979
1334.334521  2564.6996  1325.5153
1334.355354  617.2036  1292.5074
1334.376188  1720.0643  1320.415
1334.397021  -1649.4154  1317.031
1334.417855  2390.6419  1318.1443
1334.438688  556.8858  1315.6612
1334.459522  3376.8387  1317.2613
1334.480355  508.0379  1315.0141
1334.501189  2986.9582  1317.3455
1334.522022  -395.6008  1286.5352
1334.542856  2074.4573  1318.1884
1334.563689  186.4559  1317.1646
1334.584523  -1393.7544  1318.3936
1334.605356  -325.9571  1318.295
1334.62619  895.2764  1320.1608
1334.647023  -1156.7703  1318.5191
1334.667857  -1018.9032  1319.237
1334.68869  957.4292  1318.4635
1334.709524  -372.8464  1316.666
1334.730357  1348.5441  1316.021
1334.751191  2309.4379  1315.5792
1334.772024  1296.5691  1312.2502
1334.792858  3024.7654  1310.3384
1334.813691  1225.7223  1307.838
1334.834525  2862.3411  1306.8051
1334.855358  -1176.3039  1302.7364
1334.876192  437.341  1301.2122
1334.897025  2645.2162  1301.2911
1334.917859  -489.4204  1267.6231
1334.938692  2877.3227  1297.6796
1334.959526  3383.9539  1296.5712
1334.980359  2492.1702  1304.6494
1335.001193  494.7414  1263.5968
1335.022026  -1923.3153  1262.854
1335.04286  140.1154  1287.4078
1335.063693  608.9168  1260.775
1335.084527  2256.2148  1285.4779
1335.10536  1623.0574  1260.7727
1335.126194  664.535  1283.9484
1335.147027  -280.1416  1281.9134
1335.167861  -1835.9593  1253.8925
1335.188694  -1331.0276  1252.0016
1335.209528  -1655.9154  1248.5336
1335.230361  1434.0863  1247.9797
1335.251195  -916.2353  1244.3089
1335.272028  -96.4247  1244.0163
1335.292862  192.4236  1241.7748
1335.313695  -570.8674  1240.4051
1335.334529  1399.7768  1358.9564
1335.355362  795.9197  1237.3684
1335.376196  -2023.8632  1235.0855
1335.397029  -4288.3192  1233.6607
1335.417863  1113.163  1234.4632
1335.438696  -1316.7732  1233.3179
1335.45953  -2289.798  1233.8495
1335.480363  -1407.3973  1232.6688
1335.501197  -2194.445  1232.8483
1335.52203  -1216.7373  1231.8871
1335.542864  123.122  1233.1144
1335.563697  -234.2399  1234.4341
1335.584531  -1500.6248  1233.3332
1335.605364  831.6757  1233.6111
1335.626198  524.7107  1234.3581
1335.647031  1649.1256  1233.9563
1335.667865  -300.6737  1234.2572
1335.688698  -360.1785  1232.5836
1335.709532  -119.1227  1232.5517
1335.730365  1397.9711  1233.7996
1335.751199  -1594.9543  1233.6497
1335.772032  658.942  1233.5669
1335.792866  -268.0081  1234.0782
1335.813699  1202.4071  1235.0258
1335.834533  -1057.1376  1234.2332
1335.855366  3105.7546  1236.0384
1335.8762  -484.5534  1234.0932
1335.897033  1127.6161  1234.8072
1335.917867  -1398.6248  1232.1794
1335.9387  -597.5636  1232.5955
1335.959534  -673.0712  1233.2418
1335.980367  -1430.6481  1232.4692
1336.001201  -1538.995  1232.531
1336.022034  878.4396  1232.5159
1336.042868  -1103.1934  1232.5509
1336.063701  -669.7722  1231.5046
1336.084534  -97.679  1232.4591
1336.105368  -397.0459  1231.916
1336.126201  -1347.1112  1231.5592
1336.147035  -2261.7297  1231.6093
1336.167868  -512.3438  1231.7472
1336.188702  -961.5063  1232.9188
1336.209535  -187.7088  1232.0326
1336.230369  -2418.1185  1230.7853
1336.251202  1994.3164  1232.3946
1336.272036  971.1556  1231.8114
1336.292869  -868.1346  1229.8113
1336.313703  616.8457  1231.5817
1336.334536  -626.8753  1230.0375
1336.35537  85.6445  1231.258
1336.376203  173.4314  1231.8624
1336.397037  137.2656  1232.6946
1336.41787  -2065.0632  1231.3834
1336.438704  -1740.2872  1230.804
1336.459537  1076.3908  1231.929
1336.480371  499.9975  1231.9089
1336.501204  1043.6823  1232.4868
1336.522038  1945.9274  1233.534
1336.542871  -369.0064  1231.22
1336.563705  458.7403  1231.7665
1336.584538  -790.7509  1232.42
1336.605372  71.9156  1230.7262
1336.626206  -1021.049  1230.8661
1336.647039  -1863.4848  1230.0629
1336.667873  -647.8836  1230.7186
1336.688706  -696.9856  1233.5612
1336.70954  -892.9003  1232.469
1336.730373  -731.9428  1231.5776
1336.751207  445.4161  1231.9313
1336.77204  -915.3686  1231.1312
1336.792874  -669.8261  1232.3837
1336.813707  -750.7013  1230.3874
1336.834541  -1520.8674  1233.0637
1336.855374  -44.1757  1230.801
1336.876208  -482.8786  1230.2505
1336.897041  1820.706  1231.6821
1336.917875  -369.779  1230.0671
1336.938708  -690.6388  1229.7197
1336.959542  -1007.2659  1230.772
1336.980375  -252.1081  1230.0032
1337.001209  -447.6768  1230.0032
1337.022043  -1220.1718  1231.7467
1337.042876  -2052.9703  1228.6212
1337.06371  -1430.8167  1228.4953
1337.084543  -496.9362  1230.2879
1337.105377  -1652.7712  1227.1126
1337.12621  -2054.5849  1229.0653
1337.147044  640.0875  1231.4398
1337.167877  -758.2889  1231.4871
1337.188711  766.736  1230.2613
1337.209544  -3897.5955  1229.1179
1337.230378  -218.1072  1230.136
1337.251211  -4202.9711  1227.3749
1337.272045  -228.4633  1230.0757
1337.292878  -721.6926  1229.8819
